! $Id$ .
Time[s]   'latent_ht[W/m^2]' 'sens_ht[W/m^2]'   T_sfc[K]
0.         2.233              4.042             299.27
10800.     -0.547             -1.131            299.27
21600.     -2.807             -6.120            299.27
32400.     -2.247             -9.955            299.27
43200.     37.553             14.341            299.27
54000.     105.791            112.535           299.27
64800.     159.838            209.316           299.27
75600.     138.719            202.205           299.27
86400.     73.106             93.490            299.27
97200.     19.566             -6.018            299.27
108000.    5.660              -27.923           299.27
118800.    13.892             -21.115           299.27
129600.    34.911             -1.113            299.27
140400.    60.352             42.325            299.27
151200.    83.413             102.392           299.27
162000.    74.648             98.519            299.27
172800.    47.887             52.837            299.27
183600.    17.931             -3.026            299.27
194400.    8.952              -14.648           299.27
205200.    8.954              -7.845            299.27
216000.    24.497             18.849            299.27
226800.    41.105             64.720            299.27
237600.    54.225             90.631            299.27
248400.    43.198             71.292            299.27
259200.    27.979             29.026            299.27
270000.    12.329             4.067             299.27
280800.    6.875              -0.057            299.27
291600.    3.973              -0.900            299.27
302400.    16.607             7.254             299.27
313200.    34.728             21.898            299.27
324000.    60.552             39.057            299.27
334800.    55.444             37.937            299.27
345600.    40.176             17.815            299.27
356400.    13.513             -6.022            299.27
367200.    4.864              -17.183           299.27
378000.    5.762              -8.768            299.27
388800.    40.363             37.730            299.27
399600.    91.332             123.829           299.27
410400.    119.109            151.412           299.27
421200.    98.503             118.043           299.27
432000.    46.483             29.196            299.27
442800.    12.804             -4.780            299.27
453600.    -2.338             -12.711           299.27
464400.    2.102              -5.594            299.27
475200.    35.392             10.991            299.27
486000.    73.844             39.714            299.27
496800.    103.637            75.825            299.27
507600.    90.572             74.056            299.27
518400.    51.676             37.677            299.27
529200.    18.712             -8.296            299.27
540000.    -1.565             -29.325           299.27
550800.    1.957              -24.947           299.27
561600.    44.703             34.241            299.27
572400.    129.845            149.937           299.27
583200.    205.917            229.021           299.27
594000.    193.823            190.675           299.27
604800.    113.285            71.305            299.27
615600.    37.090             -15.371           299.27
626400.    12.276             -42.954           299.27
637200.    14.907             -41.012           299.27
648000.    50.310             22.053            299.27
658800.    122.911            148.204           299.27
669600.    187.715            243.511           299.27
680400.    176.409            198.886           299.27
691200.    106.648            61.292            299.27
702000.    42.250             -48.767           299.27
712800.    21.101             -76.478           299.27
723600.    19.504             -59.606           299.27
734400.    46.068             33.431            299.27
745200.    110.296            179.453           299.27
756000.    171.582            284.315           299.27
766800.    162.271            233.633           299.27
777600.    95.389             92.920            299.27
788400.    33.845             -19.485           299.27
799200.    14.902             -50.612           299.27
810000.    20.615             -44.756           299.27
820800.    31.467             -27.903           299.27
831600.    50.147             3.625             299.27
842400.    66.425             43.367            299.27
853200.    66.727             62.200            299.27
864000.    43.672             44.708            299.27
874800.    16.782             12.653            299.27
885600.    -0.075             -6.933            299.27
896400.    2.464              -7.096            299.27
907200.    31.462             21.528            299.27
918000.    86.841             111.539           299.27
928800.    127.584            166.664           299.27
939600.    119.495            150.905           299.27
950400.    63.849             55.433            299.27
961200.    18.601             -4.976            299.27
972000.    -1.481             -17.913           299.27
982800.    1.682              -8.303            299.27
993600.    46.101             49.639            299.27
1004400.   121.654            163.585           299.27
1015200.   178.658            244.671           299.27
1026000.   156.974            209.667           299.27
1036800.   85.329             81.871            299.27
1047600.   25.925             -14.486           299.27
1058400.   4.107              -45.115           299.27
1069200.   5.118              -34.569           299.27
1080000.   41.110             39.308            299.27
1090800.   115.401            170.403           299.27
1101600.   177.388            275.906           299.27
1112400.   165.402            226.684           299.27
1123200.   97.972             82.255            299.27
1134000.   34.654             -36.023           299.27
1144800.   11.043             -58.823           299.27
1155600.   7.151              -34.815           299.27
1166400.   32.443             29.163            299.27
1177200.   94.155             143.420           299.27
1188000.   157.534            228.212           299.27
1198800.   150.158            194.185           299.27
1209600.   89.371             81.358            299.27
1220400.   24.006             -6.535            299.27
1231200.   2.592              -23.576           299.27
1242000.   4.003              -15.367           299.27
1252800.   41.379             50.426            299.27
1263600.   116.543            168.997           299.27
1274400.   180.679            246.139           299.27
1285200.   166.663            193.832           299.27
1296000.   94.814             60.244            299.27
1306800.   28.270             -34.610           299.27
1317600.   4.407              -58.560           299.27
1328400.   4.219              -45.822           299.27
1339200.   45.708             14.662            299.27
1350000.   136.974            122.359           299.27
1360800.   221.630            203.403           299.27
1371600.   206.906            173.532           299.27
1382400.   115.013            71.227            299.27
1393200.   25.345             -12.220           299.27
1404000.   -6.801             -32.670           299.27
1414800.   -5.761             -27.593           299.27
1425600.   37.051             22.238            299.27
1436400.   128.237            128.611           299.27
1447200.   208.286            214.994           299.27
1458000.   189.394            186.573           299.27
1468800.   102.647            70.927            299.27
1479600.   20.184             -27.194           299.27
1490400.   -3.778             -54.915           299.27
1501200.   -0.875             -47.436           299.27
1512000.   47.937             13.875            299.27
1522800.   137.761            125.105           299.27
1533600.   210.154            208.481           299.27
1544400.   184.876            170.767           299.27
1555200.   100.270            57.221            299.27
1566000.   24.571             -32.784           299.27
1576800.   2.682              -55.291           299.27
1587600.   3.608              -45.575           299.27
1598400.   45.255             14.391            299.27
1609200.   106.428            96.177            299.27
1620000.   134.370            129.745           299.27
1630800.   100.765            87.319            299.27
1641600.   38.798             11.502            299.27
1652400.   1.759              -20.475           299.27
1663200.   -9.930             -28.881           299.27
1674000.   -5.768             -22.582           299.27
1684800.   31.212             1.614             299.27
1695600.   66.410             27.901            299.27
1706400.   78.879             40.366            299.27
1717200.   53.687             24.744            299.27
1728000.   19.088             -0.183            299.27
1738800.   0.822              -12.118           299.27
1749600.   -5.376             -15.664           299.27
1760400.   2.613              -8.169            299.27
1771200.   45.133             25.134            299.27
1782000.   128.578            114.299           299.27
1792800.   210.091            180.418           299.27
1803600.   197.928            159.961           299.27
1814400.   118.466            56.641            299.27
1825200.   37.193             -22.713           299.27
1836000.   13.403             -40.913           299.27
1846800.   15.498             -25.392           299.27
1857600.   29.894             10.153            299.27
1868400.   55.791             84.011            299.27
1879200.   83.576             153.260           299.27
1890000.   80.715             148.287           299.27
1900800.   54.257             73.306            299.27
1911600.   24.028             -0.141            299.27
1922400.   11.790             -22.894           299.27
1933200.   16.090             -15.653           299.27
1944000.   38.805             46.076            299.27
1954800.   87.353             171.897           299.27
1965600.   130.215            271.677           299.27
1976400.   124.678            238.766           299.27
1987200.   74.652             104.235           299.27
1998000.   24.469             -1.711            299.27
2008800.   3.437              -32.698           299.27
2019600.   5.754              -18.220           299.27
2030400.   36.677             50.308            299.27
2041200.   96.560             180.218           299.27
2052000.   146.449            278.962           299.27
2062800.   133.752            241.511           299.27
2073600.   77.410             109.114           299.27
2084400.   21.846             2.382             299.27
2095200.   1.544              -24.452           299.27
2106000.   3.821              -12.233           299.27
2116800.   41.408             64.911            299.27
2127600.   116.115            192.884           299.27
2138400.   178.700            285.727           299.27
2149200.   164.877            235.805           299.27
2160000.   93.474             104.432           299.27
2170800.   25.253             3.025             299.27
2181600.   2.800              -22.729           299.27
2192400.   5.480              -13.894           299.27
2203200.   42.102             43.689            299.27
2214000.   111.038            151.430           299.27
2224800.   171.922            237.074           299.27
2235600.   157.045            198.640           299.27
2246400.   92.374             80.421            299.27
2257200.   31.855             -17.434           299.27
2268000.   15.681             -38.917           299.27
2278800.   14.830             -25.644           299.27
2289600.   27.230             11.809            299.27
2300400.   52.777             64.265            299.27
2311200.   83.563             118.576           299.27
2322000.   76.316             99.699            299.27
2332800.   46.260             50.702            299.27
2343600.   12.661             -7.294            299.27
2354400.   3.761              -20.254           299.27
2365200.   5.663              -17.208           299.27
2376000.   22.321             4.109             299.27
2386800.   64.460             66.407            299.27
2397600.   88.613             103.417           299.27
2408400.   78.810             90.726            299.27
2419200.   37.488             25.608            299.27
2430000.   13.532             -15.566           299.27
2440800.   8.503              -23.047           299.27
2451600.   10.010             -14.319           299.27
2462400.   21.879             1.098             299.27
2473200.   68.137             35.104            299.27
2484000.   111.965            76.188            299.27
2494800.   121.492            82.258            299.27
2505600.   75.667             54.369            299.27
2516400.   27.460             10.621            299.27
2527200.   2.659              -5.592            299.27
2538000.   4.797              -4.753            299.27
2548800.   62.358             38.700            299.27
2559600.   175.484            125.675           299.27
2570400.   278.639            177.642           299.27
2581200.   264.105            143.173           299.27
2592000.   154.675            42.245            299.27
2602800.   42.967             -22.176           299.27
2613600.   -3.612             -38.197           299.27
2624400.   -3.518             -25.942           299.27
2635200.   53.483             25.381            299.27
2646000.   174.596            104.523           299.27
2656800.   293.919            150.729           299.27
2667600.   285.501            117.211           299.27
2678400.   171.606            35.902            299.27
2689200.   52.303             -20.157           299.27
2700000.   6.743              -32.871           299.27
2710800.   7.552              -23.361           299.27
2721600.   40.129             23.130            299.27
2732400.   107.394            81.887            299.27
2743200.   154.633            123.328           299.27
2754000.   134.935            94.451            299.27
2764800.   68.019             35.307            299.27
2775600.   16.640             -10.903           299.27
2786400.   -0.393             -19.514           299.27
2797200.   4.301              -15.532           299.27
2808000.   45.023             8.947             299.27
2818800.   130.340            72.131            299.27
2829600.   171.473            102.116           299.27
2840400.   147.497            85.424            299.27
2851200.   68.248             17.412            299.27
2862000.   20.965             -15.923           299.27
2872800.   3.947              -20.618           299.27
2883600.   9.205              -18.721           299.27
2894400.   66.977             7.155             299.27
2905200.   154.174            53.289            299.27
2916000.   211.785            91.995            299.27
2926800.   180.627            75.617            299.27
2937600.   103.461            25.705            299.27
2948400.   39.515             -14.088           299.27
2959200.   16.610             -27.343           299.27
2970000.   15.325             -21.512           299.27
2980800.   63.025             54.147            299.27
2991600.   163.017            171.042           299.27
3002400.   256.593            246.047           299.27
3013200.   240.486            191.413           299.27
3024000.   140.600            72.793            299.27
3034800.   41.260             -11.269           299.27
3045600.   5.803              -32.842           299.27
3056400.   7.537              -22.727           299.27
3067200.   43.964             31.096            299.27
3078000.   110.014            97.678            299.27
3088800.   184.591            151.592           299.27
3099600.   176.727            120.522           299.27
3110400.   109.684            53.108            299.27
3121200.   28.112             -4.693            299.27
3132000.   -3.473             -21.339           299.27
3142800.   1.986              -12.539           299.27
3153600.   45.901             17.305            299.27
3164400.   115.038            65.422            299.27
3175200.   183.604            105.001           299.27
3186000.   169.044            91.955            299.27
3196800.   101.570            44.064            299.27
3207600.   27.029             0.759             299.27
3218400.   1.721              -21.727           299.27
3229200.   8.646              -24.985           299.27
3240000.   76.403             18.472            299.27
3250800.   202.483            98.552            299.27
3261600.   310.420            158.962           299.27
3272400.   288.011            121.982           299.27
3283200.   170.102            30.408            299.27
3294000.   62.270             -43.749           299.27
3304800.   21.940             -64.821           299.27
3315600.   17.362             -51.912           299.27
3326400.   50.182             0.242             299.27
3337200.   118.322            63.240            299.27
3348000.   194.936            114.115           299.27
3358800.   194.489            84.538            299.27
3369600.   128.635            21.358            299.27
3380400.   51.613             -37.831           299.27
3391200.   15.658             -49.314           299.27
3402000.   16.336             -33.180           299.27
3412800.   74.902             20.768            299.27
3423600.   199.384            100.988           299.27
3434400.   318.481            154.900           299.27
3445200.   300.066            125.091           299.27
3456000.   175.418            45.815            299.27
3466800.   52.838             -12.142           299.27
3477600.   10.718             -23.419           299.27
3488400.   13.359             -16.401           299.27
3499200.   56.731             19.737            299.27
3510000.   166.276            83.863            299.27
3520800.   255.323            126.270           299.27
3531600.   248.197            98.842            299.27
3542400.   138.459            25.027            299.27
3553200.   45.169             -26.538           299.27
3564000.   5.530              -38.533           299.27
3574800.   8.599              -29.470           299.27
3585600.   70.038             1.491             299.27
3596400.   182.704            56.159            299.27
3607200.   293.235            100.395           299.27
3618000.   273.038            78.221            299.27
3628800.   166.620            13.280            299.27
3639600.   50.650             -41.384           299.27
3650400.   8.615              -54.319           299.27
3661200.   9.221              -45.363           299.27
3672000.   73.449             -8.740            299.27
3682800.   201.996            52.705            299.27
3693600.   314.273            105.102           299.27
3704400.   299.370            81.923            299.27
3715200.   176.062            14.089            299.27
3726000.   57.773             -42.558           299.27
3736800.   7.588              -53.628           299.27
3747600.   8.720              -36.395           299.27
3758400.   75.246             7.360             299.27
3769200.   199.196            78.974            299.27
3780000.   295.654            121.256           299.27
3790800.   276.148            91.244            299.27
3801600.   156.399            15.678            299.27
3812400.   53.514             -34.325           299.27
3823200.   3.840              -40.763           299.27
3834000.   5.989              -23.473           299.27
3844800.   77.207             21.628            299.27
3855600.   208.927            94.583            299.27
3866400.   325.048            148.668           299.27
3877200.   295.880            121.631           299.27
3888000.   168.650            39.781            299.27
3898800.   47.486             -31.054           299.27
3909600.   3.248              -50.868           299.27
3920400.   6.244              -36.209           299.27
3931200.   76.898             17.975            299.27
3942000.   210.842            96.251            299.27
3952800.   157.798            25.000            299.27
3963600.   20.000             8.000             299.27
